#Threshold (mV)	time(s)  count1  count2  count3
70		60	67746	67052	67338
80            	60	54348	54374	54614
90              60	47817	48278	48456
100             60	40100	39687	39824
110             60	36973	37263	36866
120            	60	31373	32049	31917
130             60	26635	26783	26815
140             180     73064
150             180     60440
160             180     55033
170             180     45292
180             180     41418
190             180     35401
200             180     29680
210             180     27382
220             180     22226
230             180     20521
240             180     17106
250             180     15969
