#Threshold (mV)	time(s)  count1  count2  count3
70		60	113668
80            	60	85956
90              60	78642
100             60	68024
110             60	62320
120            	60	52851
130             60	46868
140             60      43500
150             60      37365
160             60      35365
170             60      33551
180             60      28548                                                          
190             60      26598
200             60      23092
210             60      21720
220             60      18096   
230             60      17127
240             60      16379
250             60      13579
