#Threshold (mV)	time (s)	count1	count2	count3
70      	60		88491   87843   88046
80      	60		68227   67835   66576
90      	60		61905   62403   61641
100      	60		53030   53459   52997
110     	60		49694   49583   49571
120     	60		44491   44716   44602
130     	60		40042   40056   39414
140             180             116455
150             180             106585
160             180             99487
170             180             91920
180             180             88991
190             180             83018
200             180             76888
210             180             66539             
220             180             62239
230             180             58075
240             180             58799
250             180             57112
