#Threshold (mV)	time (s)	count1	count2	count3
70      	60		132830
80      	60		97913
90      	60		93608
100      	60		82001
110     	60		73525
120     	60		63922
130     	60		61097
140             60              58102
150             60              50315
160             60              48349
170             60              46745
180             60              43221
190             180             119183                         
200             180             107421
210             180             102466       
220             180             96423
230             180             92833
240             180             89983
250             180             82674
